File: PROJECT/FTIR Merged/Copper A.dat
Wavelength [nm]	Wavenumbers [1/cm]	Copper Ambient - averaged	Copper 1 7 days - averaged	Copper 2 7 days - averaged	Copper 1 14 days - averaged	Copper 2 14 days - averaged	Copper 1 17 days - averaged	Copper 2 17 days - averaged	Copper 1 21 days - averaged	Copper 2 21 days - averaged	Copper 1 26 days - averaged	Copper 2 26 days - averaged	Copper 1 28 days - averaged	Copper 2 28 days - averaged	Copper 1 38 days - averaged	Copper 2 38 days - averaged	Copper 1 40 days - averaged	Copper 2 40 days - averaged	Copper 1 42 days - averaged	Copper 2 42 days - averaged
899.63	11115.68	0.189	0.1846	0.1836	0.1852	0.1847	0.1937	0.1877	0.2031	0.2021	0.1784	0.183	0.1844	0.1872	0.1719	0.1749	0.172	0.1736	0.177	0.1811
950.734	10518.18	0.2192	0.213	0.2128	0.2186	0.2184	0.2208	0.2187	0.2206	0.2219	0.2118	0.2139	0.2114	0.2135	0.207	0.2077	0.2093	0.2095	0.2089	0.2102
1001.839	9981.65	0.1854	0.1788	0.1789	0.1869	0.1864	0.1861	0.1855	0.1919	0.1913	0.1781	0.1796	0.1791	0.1804	0.1773	0.177	0.179	0.1792	0.1777	0.1781
1052.943	9497.19	0.1696	0.1649	0.1656	0.1744	0.174	0.1724	0.1719	0.1825	0.1807	0.1641	0.1655	0.1654	0.1663	0.1643	0.1642	0.1652	0.1669	0.1642	0.1646
1104.048	9057.58	0.1595	0.1529	0.1532	0.1609	0.1608	0.1596	0.1597	0.1628	0.1637	0.1531	0.1547	0.1516	0.1539	0.1523	0.1534	0.1534	0.156	0.1523	0.1536
1155.152	8656.87	0.2448	0.2381	0.2379	0.2462	0.2468	0.2461	0.2463	0.252	0.2529	0.24	0.242	0.2386	0.2415	0.2367	0.2383	0.2378	0.2419	0.2357	0.2381
1206.256	8290.11	0.1851	0.1799	0.18	0.1868	0.1879	0.1861	0.1868	0.1906	0.192	0.1831	0.1845	0.1811	0.1839	0.1792	0.1812	0.1803	0.1847	0.1787	0.181
1257.361	7953.17	0.2579	0.2503	0.2499	0.2576	0.2588	0.2573	0.258	0.2669	0.2668	0.2531	0.2544	0.252	0.255	0.2498	0.2511	0.25	0.2545	0.2481	0.2506
1308.465	7642.54	0.3767	0.3659	0.3648	0.3733	0.3744	0.3733	0.3739	0.3889	0.3868	0.3666	0.3686	0.3662	0.3692	0.3637	0.3639	0.3632	0.3666	0.3606	0.3639
1359.569	7355.27	0.6919	0.672	0.6693	0.6815	0.6834	0.6819	0.6817	0.7054	0.701	0.6701	0.6718	0.6686	0.673	0.6647	0.659	0.6634	0.6638	0.6591	0.6611
1410.674	7088.81	0.276	0.2639	0.2631	0.2704	0.2707	0.2692	0.2694	0.2823	0.2796	0.2621	0.2621	0.2623	0.2627	0.2622	0.2607	0.2619	0.2635	0.2602	0.2606
1461.778	6840.98	3.305	3.032	2.857	2.88	3.96	3.887	3.606	4.046	5.513	2.891	4.196	2.516	3.696	4.068	2.349	3.642	2.819	3.824	4.051
1512.883	6609.9	0.167	0.1568	0.1566	0.1608	0.1605	0.1587	0.1581	0.1687	0.1662	0.1522	0.1489	0.1523	0.1511	0.152	0.1493	0.1514	0.1507	0.1495	0.1468
1563.987	6393.92	0.06379	0.05776	0.05799	0.06167	0.06195	0.05939	0.05948	0.06499	0.06474	0.05369	0.05202	0.05452	0.05518	0.05551	0.05534	0.05494	0.05677	0.05343	0.05297
1615.091	6191.6	0.09074	0.08642	0.08638	0.09039	0.09059	0.09005	0.08998	0.09526	0.0949	0.08392	0.08175	0.08504	0.08539	0.08592	0.08507	0.08519	0.08688	0.08351	0.08219
1666.196	6001.7	0.03814	0.03425	0.03443	0.03845	0.03901	0.03745	0.03809	0.04236	0.04312	0.03232	0.03173	0.03323	0.03507	0.03489	0.03594	0.03423	0.03744	0.03333	0.03434
1717.3	5823.09	0.02581	0.02618	0.02733	0.03407	0.03684	0.03571	0.03875	0.04245	0.04673	0.03576	0.03903	0.03745	0.04393	0.03977	0.04706	0.04116	0.05058	0.04054	0.04651
1768.404	5654.82	0.01937	0.01801	0.0187	0.02222	0.02393	0.02285	0.02451	0.02739	0.02998	0.02037	0.02255	0.02077	0.02459	0.02163	0.02594	0.02229	0.02783	0.02231	0.02634
1819.509	5495.99	0.0109	0.006731	0.00697	0.008459	0.008902	0.007805	0.007858	0.01063	0.01108	0.003042	0.002832	0.002059	0.002308	0.002203	0.00257	0.002334	0.00271	0.002417	0.002509
1870.613	5345.84	0.01544	0.01152	0.01146	0.01246	0.01262	0.01178	0.01145	0.01449	0.0145	0.00611	0.005833	0.005546	0.005261	0.005313	0.004993	0.005379	0.004703	0.00552	0.005177
1921.718	5203.68	0.0119	0.008096	0.008079	0.008446	0.008672	0.008092	0.007818	0.01114	0.01118	0.002024	0.001697	0.001771	0.001435	0.001627	0.001401	0.001675	0.001165	0.001706	0.001418
1972.822	5068.88	0.003734	0.0004084	0.0005432	0.0002693	0.0005606	0.0002911	0.0001303	0.00285	0.003056	-0.006081	-0.006338	-0.006295	-0.006466	-0.006295	-0.006338	-0.006295	-0.006509	-0.006209	-0.00638
2023.926	4940.89	0.01137	0.007818	0.007902	0.007782	0.008088	0.007928	0.007796	0.01153	0.01139	0.0009348	0.000826	0.001139	0.001022	0.001018	0.001092	0.0008956	0.0009392	0.0008608	0.0009218
2075.031	4819.21	0.009977	0.006286	0.006343	0.006643	0.006943	0.006573	0.006431	0.009084	0.009169	-0.000434	-0.0006076	-0.0001737	-0.0003039	-0.0002605	-0.0002605	-0.0002605	-0.0003039	-0.0004341	-0.0004341
2126.135	4703.37	0.0142	0.01006	0.01007	0.01111	0.01135	0.01063	0.01047	0.01304	0.01309	0.003909	0.003738	0.004286	0.004128	0.003834	0.003782	0.004027	0.004018	0.003799	0.003821
2177.239	4592.97	0.02503	0.02039	0.02032	0.02183	0.02208	0.0211	0.02097	0.02451	0.02433	0.01475	0.01459	0.01512	0.01492	0.01428	0.01418	0.01459	0.01462	0.01442	0.01449
2228.344	4487.64	0.02769	0.02274	0.02264	0.02405	0.02435	0.0235	0.02334	0.02683	0.02676	0.01729	0.01707	0.01743	0.01721	0.0166	0.01646	0.01701	0.01703	0.01687	0.01692
2279.448	4387.03	0.03783	0.03171	0.03173	0.03306	0.03337	0.03243	0.0322	0.03702	0.03664	0.02622	0.02585	0.02586	0.02571	0.02533	0.02536	0.0252	0.02535	0.02501	0.02521
2330.553	4290.83	0.05373	0.04201	0.04141	0.04755	0.0479	0.04134	0.04093	0.04686	0.04752	0.03869	0.03746	0.03665	0.03694	0.03665	0.03629	0.03493	0.03509	0.03406	0.03438
2381.657	4198.76	0.05448	0.04888	0.04853	0.05003	0.05027	0.04949	0.04928	0.05522	0.0541	0.04222	0.0418	0.04257	0.04242	0.0425	0.04228	0.04171	0.04194	0.04079	0.04103
2432.761	4110.56	0.05321	0.04942	0.04908	0.04921	0.04945	0.05025	0.05008	0.05462	0.05422	0.04178	0.04156	0.04244	0.04227	0.0425	0.04224	0.04206	0.04229	0.04114	0.0413
2483.866	4025.98	0.05181	0.04793	0.04765	0.04831	0.04855	0.04907	0.04895	0.05264	0.05253	0.0407	0.04053	0.04152	0.0415	0.04173	0.04161	0.04126	0.04168	0.04023	0.0405
2534.97	3944.82	0.08196	0.07714	0.0767	0.07843	0.07879	0.07902	0.07898	0.08338	0.08315	0.07064	0.07064	0.07165	0.07181	0.0713	0.07134	0.07095	0.07168	0.06963	0.07026
2586.074	3866.86	0.1657	0.1594	0.1586	0.1614	0.1618	0.1623	0.1621	0.1707	0.1693	0.1533	0.1535	0.1543	0.1545	0.1528	0.1523	0.1522	0.1529	0.1504	0.1514
2637.179	3791.93	0.2302	0.223	0.2218	0.2254	0.2258	0.2265	0.2263	0.2378	0.2356	0.2169	0.2172	0.2179	0.2181	0.2157	0.2149	0.215	0.2157	0.2129	0.2142
2688.283	3719.85	0.2627	0.2549	0.2535	0.2575	0.2581	0.2584	0.2584	0.2746	0.2711	0.2485	0.2493	0.2498	0.2503	0.2475	0.2468	0.2467	0.248	0.2447	0.2468
2739.388	3650.45	0.284	0.2752	0.2737	0.2782	0.2786	0.2783	0.2783	0.3012	0.2953	0.2681	0.2689	0.2704	0.2702	0.2681	0.2669	0.2672	0.2686	0.2656	0.2677
2790.492	3583.6	0.5011	0.4864	0.4837	0.4902	0.4912	0.4913	0.4917	0.5131	0.5075	0.4779	0.4793	0.4787	0.4796	0.476	0.4732	0.475	0.4761	0.472	0.4751
2841.596	3519.15	3.616	3.135	2.92	2.948	4.674	6	4.592	5	10	3.034	4.207	2.542	5.99	3.883	2.385	4.082	2.94	4.24	4.075
2892.701	3456.98	3.537	3.16	2.932	2.987	6.003	5.256	4.419	4.398	10	3.05	5.997	2.596	4.312	4.665	2.437	4.051	2.977	4.204	3.969
2943.805	3396.96	3.63	3.25	3.016	3.055	6.003	6	4.467	9.19	10	3.103	5.997	2.707	4.967	5.149	2.514	4.801	3.083	5.994	5.994
2994.909	3339	1.013	0.9934	0.9858	0.9952	0.9975	0.9942	0.9911	1.115	1.074	0.9779	0.977	0.9878	0.9861	0.9802	0.9566	0.9741	0.9691	0.9722	0.9704
3046.014	3282.98	0.3047	0.2977	0.2958	0.2984	0.2976	0.2978	0.2963	0.3241	0.3148	0.2878	0.2853	0.2938	0.2907	0.2895	0.284	0.2879	0.2863	0.2859	0.2829
3097.118	3228.81	0.1237	0.1193	0.1186	0.1202	0.1201	0.1193	0.1191	0.1304	0.1275	0.1102	0.1096	0.1152	0.115	0.1138	0.1129	0.1129	0.1146	0.1113	0.1114
3148.223	3176.4	0.1043	0.1002	0.0996	0.1015	0.1012	0.1006	0.1003	0.1103	0.1079	0.09073	0.09035	0.09594	0.09596	0.09472	0.09423	0.09382	0.09576	0.09238	0.09276
3199.327	3125.66	0.07901	0.0762	0.07578	0.07791	0.07753	0.07694	0.07663	0.08842	0.08525	0.0663	0.06593	0.07222	0.07208	0.07106	0.07061	0.06979	0.07197	0.06846	0.0689
3250.431	3076.51	0.03049	0.02832	0.02819	0.0302	0.02965	0.02882	0.0287	0.0322	0.03158	0.01794	0.01759	0.02326	0.0237	0.02361	0.02364	0.02271	0.025	0.02145	0.02186
3301.536	3028.89	0.02129	0.01926	0.01926	0.02144	0.02081	0.01983	0.01968	0.02199	0.02167	0.008645	0.008344	0.0138	0.01448	0.01457	0.01462	0.01369	0.01615	0.01251	0.01293
3352.64	2982.72	0.02125	0.01943	0.01949	0.02181	0.02119	0.02005	0.01992	0.02202	0.02183	0.008548	0.0083	0.01367	0.01445	0.0147	0.01491	0.01383	0.01636	0.01271	0.01318
3403.744	2937.94	0.01317	0.01197	0.01204	0.01404	0.01352	0.01264	0.01249	0.01427	0.01415	0.0009695	0.0008129	0.00611	0.006837	0.007429	0.007782	0.006471	0.008996	0.005349	0.005982
3454.849	2894.48	0.006462	0.006524	0.006462	0.007663	0.007234	0.006811	0.006581	0.007862	0.007797	-0.004364	-0.004407	0.0003693	0.0009783	0.001375	0.00164	0.0006867	0.003073	-0.0003907	7.385E-5
3505.953	2852.29	0.001885	0.001754	0.00171	0.002395	0.002151	0.002024	0.001815	0.003291	0.003348	-0.008558	-0.008813	-0.00445	-0.003848	-0.003245	-0.0029	-0.00402	-0.001863	-0.005223	-0.004794
3557.058	2811.31	-0.0001737	-0.0002605	-0.0003039	-0.0004775	-0.0004774	-0.0002605	-0.0003907	0.001409	0.001592	-0.009791	-0.01022	-0.006338	-0.005781	-0.005695	-0.005266	-0.006252	-0.004278	-0.007406	-0.006979
3608.162	2771.49	0.007977	0.009368	0.009381	0.008738	0.009053	0.009373	0.009217	0.013	0.01299	0.001187	0.0007302	0.003593	0.004198	0.003694	0.004523	0.002845	0.005019	0.001566	0.002343
3659.266	2732.79	0.01508	0.01552	0.01526	0.01415	0.01447	0.01538	0.01523	0.01996	0.01967	0.007486	0.006952	0.009723	0.01011	0.009098	0.009772	0.008814	0.01065	0.00761	0.008017
3710.371	2695.15	0.02159	0.02257	0.02247	0.02189	0.02222	0.02254	0.02228	0.02745	0.02705	0.01486	0.01395	0.01659	0.01714	0.01614	0.01722	0.01559	0.01716	0.01444	0.01465
3761.475	2658.53	0.03079	0.03216	0.03176	0.03083	0.0311	0.03207	0.03184	0.03714	0.03679	0.02377	0.02307	0.02638	0.02659	0.02545	0.0261	0.02517	0.0269	0.02362	0.02401
3812.579	2622.9	0.03731	0.03964	0.03911	0.03747	0.0377	0.03922	0.03897	0.0442	0.0438	0.0309	0.0302	0.03383	0.03406	0.0321	0.03261	0.03192	0.03369	0.0303	0.03066
3863.684	2588.2	0.04219	0.04279	0.04248	0.04172	0.04203	0.04287	0.04268	0.04766	0.04756	0.0338	0.03312	0.03714	0.03751	0.03613	0.0369	0.03591	0.03803	0.03364	0.03404
3914.788	2554.42	0.04452	0.04548	0.0451	0.04336	0.04365	0.04516	0.04503	0.05006	0.04963	0.03667	0.03619	0.03991	0.04021	0.03794	0.03861	0.03778	0.03982	0.036	0.03631
3965.893	2521.5	0.049	0.05015	0.04968	0.04831	0.04865	0.05006	0.04975	0.05417	0.05381	0.04156	0.04108	0.04476	0.04509	0.04271	0.04338	0.04252	0.04452	0.04077	0.04115
3999.641	2500.22	0.06156	0.0626	0.06211	0.0605	0.06076	0.06249	0.0622	0.06772	0.06706	0.05379	0.05337	0.05693	0.05714	0.05484	0.05547	0.05448	0.05663	0.05265	0.05322