File: PROJECT/FTIR Merged/kraft paper and copper A.dat
Wavelength [nm]	Wavenumbers [1/cm]	Kraft paper and copper ambient - averaged	Kraft paper and copper 1  7 days  - averaged	Kraft paper and copper 2  7 days - averaged	Kraft paper and Copper 1 14 days - averaged	Kraft Paper and copper 2 15 days - averaged	Kraft paper and copper 1  19 days - averaged	Kraft paper and Copper 2 18 days - averaged	Kraft paper and Copper 1 21 days - averaged	Kraft paper and Copper 2 21 days - averaged	Kraft paper and Copper 1 28 days - averaged	Kraft paper and Copper 2 28 days - averaged	Kraft paper and Copper 1 35 days - averaged	Kraft paper and Copper 2 35 days - averaged	Kraft paper and copper 1  42 days  - averaged	Kraft paper and Copper 2 42 days - averaged	Kraft paper and Copper 1 49 days - averaged	Kraft paper and Copper 2 50 days - averaged	Kraft paper and Copper 1 56 days - averaged	Kraft paper and Copper 2 56 days - averaged	Kraft paper and Copper 1 63 days - averaged	Kraft paper and Copper 2 63 days - averaged	Kraft paper and copper 1  70 days - averaged	Kraft paper and copper 2  67 days - averaged	Kraft paper and copper 1  77 days - averaged	Kraft paper and copper 2  74 days - averaged	Kraft paper and copper 1  83 days - averaged	Kraft paper and copper 2  80 days  - averaged
899.630	11115.68	0.1723	0.1777	0.1816	0.1835	0.1806	0.1635	0.1716	0.1688	0.1711	0.1904	0.1677	0.1729	0.1752	0.1873	0.1752	0.1765	0.1748	0.1881	0.1819	0.1892	0.176	0.1857	0.1966	0.2019	0.1955	0.1864	0.1928
969.055	10319.33	0.2326	0.231	0.2321	0.2321	0.2308	0.2233	0.2267	0.2274	0.2336	0.2378	0.229	0.2226	0.2273	0.2332	0.2258	0.2319	0.2262	0.2385	0.2323	0.2391	0.2342	0.2426	0.2435	0.2473	0.245	0.2421	0.2459
1038.480	9629.46	0.1748	0.1785	0.1769	0.1801	0.1769	0.1694	0.1735	0.1749	0.1788	0.1824	0.1754	0.1746	0.1754	0.1844	0.1741	0.1807	0.1772	0.1881	0.1799	0.1884	0.185	0.1906	0.192	0.1964	0.1939	0.195	0.199
1107.904	9026.05	0.1499	0.1496	0.15	0.1513	0.15	0.1479	0.1498	0.1509	0.1543	0.1553	0.1519	0.1489	0.1515	0.1578	0.1504	0.1584	0.1533	0.166	0.1589	0.169	0.1665	0.1729	0.1736	0.1785	0.1768	0.1733	0.1772
1177.329	8493.80	0.1848	0.1832	0.1849	0.1853	0.1836	0.1783	0.1817	0.1829	0.1873	0.1889	0.185	0.1848	0.1861	0.1916	0.1851	0.1947	0.1878	0.2003	0.1947	0.2055	0.2038	0.2101	0.211	0.2186	0.2172	0.2134	0.2172
1246.754	8020.83	0.2291	0.2303	0.2277	0.2316	0.2305	0.2253	0.2265	0.2278	0.229	0.2327	0.2297	0.2279	0.229	0.2403	0.2276	0.2385	0.2347	0.2472	0.2394	0.2519	0.249	0.257	0.2583	0.2643	0.2624	0.2595	0.2632
1316.179	7597.75	0.3469	0.3466	0.3453	0.3476	0.3471	0.3366	0.3389	0.3399	0.3448	0.3458	0.3428	0.3389	0.3413	0.3511	0.3382	0.3478	0.3443	0.3557	0.3481	0.3576	0.3552	0.362	0.3632	0.368	0.3665	0.3681	0.3715
1385.604	7217.07	0.8905	0.9105	0.8865	0.9053	0.9062	0.879	0.877	0.8804	0.8804	0.8812	0.8763	0.87	0.871	0.9143	0.853	0.8759	0.8832	0.8961	0.8765	0.8914	0.8817	0.8955	0.9	0.8943	0.889	0.8829	0.8877
1455.029	6872.72	5.999	3.649	3.664	2.668	4.129	4.747	2.898	3.652	3.56	4.094	2.502	2.78	6	5.998	2.203	6.001	6	3.664	4.145	3.543	4.507	4.116	5.999	6	3.572	3.917	6
1524.453	6559.73	0.1008	0.1044	0.1048	0.103	0.1014	0.09739	0.09815	0.09822	0.1006	0.1025	0.09995	0.0998	0.09915	0.1062	0.096	0.09713	0.09739	0.1051	0.09834	0.1033	0.09776	0.1033	0.105	0.1003	0.1008	0.09624	0.09788
1593.878	6274.01	0.08922	0.09008	0.08918	0.09055	0.08977	0.08844	0.08793	0.08888	0.08972	0.09158	0.08951	0.09018	0.09016	0.09485	0.08702	0.09332	0.09023	0.09704	0.09328	0.09975	0.09702	0.102	0.1031	0.1052	0.1047	0.1025	0.1053
1663.303	6012.13	0.03255	0.03501	0.03458	0.03564	0.03406	0.03253	0.03472	0.03495	0.03487	0.03748	0.03551	0.03808	0.03769	0.04369	0.03619	0.04216	0.03968	0.04729	0.04292	0.05056	0.04809	0.05354	0.05472	0.0563	0.05622	0.05481	0.05772
1732.728	5771.25	0.0187	0.02126	0.02102	0.02452	0.02265	0.02449	0.02374	0.02666	0.02529	0.03176	0.02844	0.03799	0.0341	0.04596	0.03647	0.05551	0.04419	0.06402	0.05427	0.07413	0.07352	0.08474	0.08664	0.1001	0.09714	0.0999	0.1046
1802.153	5548.92	0.008295	0.008809	0.009665	0.009142	0.008415	0.006736	0.008987	0.009448	0.009253	0.01008	0.009164	0.0105	0.01011	0.01271	0.008273	0.01097	0.007857	0.01446	0.0115	0.01687	0.01391	0.01932	0.0196	0.02017	0.02021	0.01935	0.02162
1871.577	5343.09	0.01114	0.01069	0.01116	0.0108	0.01096	0.01011	0.01033	0.01044	0.0105	0.01071	0.01088	0.01076	0.0105	0.01039	0.007774	0.008273	0.005916	0.009333	0.00826	0.01003	0.007279	0.01065	0.01062	0.00916	0.009839	0.006643	0.008535
1941.002	5151.98	0.003852	0.003804	0.003979	0.003957	0.003668	0.001863	0.003843	0.003922	0.003786	0.003729	0.003431	0.003409	0.003571	0.003769	0.001017	0.0007823	-0.001128	0.002273	0.0012	0.002644	0.0002606	0.003663	0.003602	0.002138	0.002815	-0.0001738	0.001745
2010.427	4974.07	0.001832	0.001815	0.001837	0.001806	0.001933	0.001105	0.001762	0.001715	0.001662	0.001653	0.001845	0.001893	0.00181	0.001854	-0.0007377	-0.0006509	-0.002684	0.0008912	-0.0003473	0.001026	-0.001258	0.001741	0.001754	0.0002302	0.000926	-0.002555	-0.0006509
2079.852	4808.03	0.005252	0.005388	0.004747	0.005419	0.005467	0.003554	0.005094	0.005037	0.005621	0.005331	0.005089	0.005243	0.005085	0.005212	0.002601	0.002518	0.0004649	0.003826	0.002788	0.003865	0.001758	0.004654	0.004747	0.003966	0.004637	0.001183	0.003116
2149.277	4652.73	0.01464	0.01455	0.01436	0.01454	0.01456	0.0133	0.01437	0.01425	0.01437	0.01402	0.01402	0.01374	0.01387	0.01419	0.01137	0.01138	0.009555	0.01329	0.01169	0.01309	0.01097	0.01389	0.01397	0.01255	0.01318	0.009772	0.01176
2218.701	4507.14	0.02235	0.02217	0.02099	0.02221	0.02256	0.02014	0.02118	0.02106	0.02232	0.02176	0.02144	0.02163	0.0213	0.02165	0.01863	0.01875	0.01688	0.02005	0.01905	0.01985	0.01799	0.02066	0.02077	0.02028	0.02085	0.01746	0.01949
2288.126	4370.39	0.03287	0.03346	0.033	0.03382	0.03275	0.03106	0.03219	0.03244	0.03284	0.03344	0.03234	0.0317	0.03179	0.03181	0.02897	0.03143	0.02701	0.03198	0.02907	0.03144	0.0287	0.03122	0.03239	0.0307	0.03124	0.02705	0.02906
2357.551	4241.69	0.04601	0.04727	0.04343	0.0446	0.04671	0.04127	0.04118	0.04241	0.04636	0.04635	0.04485	0.04371	0.04398	0.04524	0.04142	0.04279	0.04005	0.0423	0.04201	0.04169	0.04021	0.04095	0.04248	0.04336	0.0438	0.04072	0.04282
2426.976	4120.35	0.04882	0.0486	0.04788	0.04874	0.04863	0.04623	0.04768	0.04745	0.04831	0.04734	0.04723	0.04673	0.04648	0.04758	0.04409	0.04434	0.04243	0.04632	0.04427	0.04588	0.0438	0.04677	0.04704	0.04652	0.04699	0.04334	0.0455
2496.401	4005.77	0.05062	0.05026	0.04877	0.05048	0.05104	0.04809	0.0489	0.04865	0.05071	0.04956	0.049	0.04866	0.04891	0.04968	0.04633	0.04659	0.0449	0.04859	0.04714	0.0483	0.04694	0.04933	0.04972	0.0491	0.04956	0.04656	0.04877
2565.826	3897.38	0.115	0.1135	0.1126	0.1138	0.1139	0.1102	0.1114	0.1111	0.1135	0.1119	0.1118	0.1104	0.1106	0.1118	0.1079	0.1089	0.1068	0.1111	0.1089	0.1107	0.1092	0.1119	0.1125	0.1133	0.1135	0.1105	0.1129
2635.250	3794.71	0.2223	0.2201	0.2171	0.2205	0.2217	0.2134	0.2141	0.2137	0.2189	0.2157	0.2153	0.2107	0.2126	0.2171	0.2093	0.211	0.2108	0.2153	0.212	0.2145	0.2134	0.216	0.2168	0.2174	0.2172	0.2164	0.2189
2704.675	3697.30	0.2592	0.2572	0.2542	0.2576	0.2581	0.2496	0.251	0.2506	0.2556	0.2528	0.2526	0.2484	0.2499	0.255	0.2464	0.2493	0.2483	0.2534	0.2496	0.2525	0.2512	0.2542	0.2553	0.2571	0.2567	0.2551	0.2578
2774.100	3604.77	0.3167	0.3165	0.3113	0.3164	0.3171	0.3065	0.3095	0.3089	0.314	0.3109	0.3095	0.3039	0.3071	0.3144	0.303	0.3065	0.3064	0.3118	0.3068	0.3103	0.309	0.3123	0.3135	0.3143	0.3136	0.3125	0.3154
2843.525	3516.76	4.052	3.697	3.666	2.633	3.947	3.873	2.987	3.439	3.444	3.857	2.545	2.772	3.796	3.775	2.199	4.019	4	3.865	4.296	3.606	3.526	3.589	3.887	6	3.442	3.96	4.412
2912.950	3432.95	5.952	4.325	3.855	2.94	4.153	5.998	3.12	3.674	3.639	4.117	2.617	2.814	4.408	5.998	2.245	4.414	4.725	6	5.207	3.658	4.03	4.108	4.317	6	3.572	4.456	4.216
2982.374	3353.03	2.008	2.163	1.981	2.1	2.129	1.964	1.955	1.984	1.964	1.977	1.885	1.911	1.931	2.172	1.749	1.958	2.034	2.079	1.942	2.005	1.951	1.992	2.029	2.007	1.955	1.96	1.982
3051.799	3276.76	0.259	0.2654	0.2554	0.2651	0.2656	0.2569	0.2559	0.2558	0.257	0.2554	0.2527	0.2544	0.2506	0.2634	0.2462	0.2501	0.2523	0.2563	0.2487	0.2537	0.2507	0.2539	0.2562	0.2555	0.2538	0.2516	0.2556
3121.224	3203.87	0.09594	0.09979	0.0941	0.09987	0.1	0.09675	0.0965	0.09583	0.09707	0.09596	0.09452	0.0978	0.09487	0.1008	0.09194	0.09458	0.09412	0.09864	0.09386	0.09706	0.09623	0.09781	0.09959	0.09998	0.09956	0.09653	0.1
3190.649	3134.16	0.08441	0.08763	0.08095	0.08815	0.08859	0.08436	0.08393	0.08309	0.08493	0.08286	0.08191	0.0843	0.08227	0.08839	0.07928	0.08147	0.08203	0.08566	0.08103	0.08394	0.08336	0.08412	0.08572	0.08705	0.08666	0.08326	0.08691
3260.074	3067.42	0.02204	0.02393	0.01954	0.02439	0.02473	0.02396	0.02387	0.0229	0.02419	0.0225	0.02125	0.02521	0.02299	0.02479	0.02022	0.02218	0.02093	0.02483	0.02166	0.02323	0.0238	0.02367	0.0249	0.0264	0.02645	0.0222	0.02577
3329.498	3003.46	0.01686	0.01841	0.01392	0.01906	0.01931	0.01924	0.01901	0.01808	0.01919	0.01714	0.0162	0.01992	0.01824	0.01945	0.01536	0.01724	0.01608	0.01996	0.01701	0.01852	0.01923	0.01858	0.01966	0.02207	0.02217	0.0172	0.02079
3398.923	2942.11	0.009768	0.01159	0.006877	0.01236	0.01259	0.01239	0.01254	0.01179	0.01262	0.01043	0.009404	0.01407	0.01171	0.01297	0.008805	0.01135	0.009461	0.01362	0.01077	0.0124	0.01306	0.01245	0.01361	0.01634	0.01627	0.01212	0.01564
3468.348	2883.22	0.001776	0.002758	-0.001474	0.003782	0.004049	0.004396	0.004479	0.003729	0.004207	0.002029	0.001379	0.005428	0.003475	0.004106	0.0006041	0.002544	0.0006954	0.004558	0.002369	0.003773	0.004496	0.003935	0.004931	0.00776	0.007995	0.002937	0.006423
3537.773	2826.64	-0.003374	-0.00208	-0.005309	-0.001388	-0.0009544	-0.0007377	-0.001041	-0.001517	-0.000781	-0.002684	-0.003374	0.001414	-0.001388	-0.0009544	-0.003934	-0.002425	-0.004665	-0.0009111	-0.002857	-0.001604	-0.001647	-0.001431	-0.0003473	0.001261	0.001405	-0.0029	0.0001824
3607.198	2772.24	0.006049	0.007853	0.004795	0.008983	0.00842	0.008539	0.007911	0.007792	0.008181	0.007142	0.006344	0.01038	0.007743	0.00784	0.004844	0.006948	0.003975	0.007571	0.005318	0.006921	0.006317	0.006551	0.007999	0.008265	0.008677	0.003751	0.006423
3676.623	2719.89	0.01627	0.01748	0.01554	0.01784	0.01808	0.01701	0.01659	0.01606	0.01723	0.01572	0.01582	0.01895	0.01622	0.01669	0.01343	0.01377	0.01207	0.01494	0.01327	0.01369	0.01308	0.01395	0.0151	0.0144	0.01481	0.0092	0.01156
3746.047	2669.48	0.02678	0.02751	0.02565	0.0277	0.02833	0.02728	0.02729	0.02647	0.02774	0.02549	0.02555	0.02859	0.0259	0.02573	0.023	0.0235	0.02172	0.02412	0.02287	0.02285	0.02288	0.02331	0.02425	0.02442	0.02473	0.0198	0.02253
3815.472	2620.91	0.03712	0.03788	0.03589	0.03826	0.03912	0.03761	0.03703	0.03639	0.03789	0.03553	0.03548	0.03865	0.03602	0.03652	0.03312	0.0329	0.03187	0.03415	0.03282	0.03252	0.03243	0.03328	0.03406	0.0344	0.03474	0.03068	0.03329
3884.897	2574.07	0.0417	0.04221	0.03988	0.04233	0.04308	0.04173	0.0416	0.04098	0.04213	0.03981	0.03946	0.04271	0.03997	0.04021	0.03715	0.03729	0.03605	0.03862	0.03682	0.03693	0.03706	0.03739	0.03828	0.03917	0.03937	0.03502	0.03758
3954.322	2528.88	0.04569	0.04595	0.04351	0.04619	0.0471	0.04579	0.04528	0.04469	0.04622	0.04359	0.0435	0.04623	0.04392	0.04431	0.04104	0.04092	0.03996	0.04241	0.04083	0.04069	0.04072	0.04118	0.04214	0.04298	0.04342	0.03912	0.0418
3999.641	2500.22	0.05951	0.05989	0.05672	0.06014	0.06129	0.05908	0.0587	0.05817	0.05985	0.05695	0.05705	0.05931	0.05701	0.05808	0.05419	0.05429	0.05368	0.05572	0.05413	0.05431	0.05421	0.05477	0.05578	0.05672	0.0572	0.05313	0.05587